date=30/05/09 12
height(m)   thl(K)     qt(kg/kg)       u(m/s)     v(m/s)     tke(m2/s2)
      12.5000      290.927      5.629E-03      -7.9028      0.4085      1.0000
      37.5000      290.815      5.481E-03      -7.7583      -0.2357      1.0000
      62.5000      290.710      5.348E-03      -7.6335      -0.8206      1.0000
      87.5000      290.613      5.227E-03      -7.5275      -1.3485      1.0000
      112.500      290.525      5.118E-03      -7.4397      -1.8215      1.0000
      137.500      290.443      5.020E-03      -7.3695      -2.2416      1.0000
      162.500      290.369      4.932E-03      -7.3161      -2.6110      1.0000
      187.500      290.301      4.853E-03      -7.2789      -2.9320      1.0000
      212.500      290.241      4.783E-03      -7.2571      -3.2064      1.0000
      237.500      290.186      4.721E-03      -7.2500      -3.4367      1.0000
      262.500      290.137      4.666E-03      -7.2570      -3.6247      0.9968
      287.500      290.094      4.618E-03      -7.2773      -3.7728      0.9668
      312.500      290.057      4.577E-03      -7.3103      -3.8830      0.9370
      337.500      290.024      4.542E-03      -7.3552      -3.9575      0.9076
      362.500      289.997      4.512E-03      -7.4114      -3.9983      0.8785
      387.500      289.973      4.487E-03      -7.4781      -4.0077      0.8497
      412.500      289.954      4.467E-03      -7.5548      -3.9878      0.8212
      437.500      289.939      4.451E-03      -7.6406      -3.9407      0.7930
      462.500      289.928      4.440E-03      -7.7348      -3.8685      0.7652
      487.500      289.920      4.432E-03      -7.8369      -3.7733      0.7377
      512.500      289.914      4.428E-03      -7.9460      -3.6574      0.7106
      537.500      289.912      4.427E-03      -8.0615      -3.5228      0.6837
      562.500      289.912      4.428E-03      -8.1827      -3.3717      0.6573
      587.500      289.913      4.432E-03      -8.3089      -3.2062      0.6312
      612.500      289.917      4.438E-03      -8.4394      -3.0285      0.6054
      637.500      289.922      4.447E-03      -8.5735      -2.8406      0.5800
      662.500      289.928      4.456E-03      -8.7105      -2.6447      0.5550
      687.500      289.935      4.467E-03      -8.8497      -2.4430      0.5303
      712.500      289.943      4.480E-03      -8.9904      -2.2376      0.5060
      737.500      289.951      4.492E-03      -9.1320      -2.0306      0.4821
      762.500      289.959      4.505E-03      -9.2736      -1.8241      0.4586
      787.500      289.966      4.519E-03      -9.4147      -1.6204      0.4355
      812.500      289.972      4.532E-03      -9.5545      -1.4214      0.4128
      837.500      289.978      4.544E-03      -9.6924      -1.2294      0.3905
      862.500      289.982      4.556E-03      -9.8275      -1.0465      0.3686
      887.500      289.984      4.567E-03      -9.9594      -0.8749      0.3471
      912.500      289.985      4.576E-03      -10.087      -0.7161      0.3261
      937.500      289.983      4.583E-03      -10.211      -0.5704      0.3055
      962.500      289.981      4.589E-03      -10.330      -0.4373      0.2853
      987.500      289.977      4.592E-03      -10.446      -0.3164      0.2657
      1012.50      289.971      4.594E-03      -10.557      -0.2072      0.2465
      1037.50      289.966      4.593E-03      -10.665      -0.1094      0.2278
      1062.50      289.959      4.590E-03      -10.768      -0.0226      0.2095
      1087.50      289.952      4.585E-03      -10.868      0.0537      0.1918
      1112.50      289.946      4.577E-03      -10.963      0.1199      0.1747
      1137.50      289.939      4.566E-03      -11.054      0.1763      0.1580
      1162.50      289.933      4.553E-03      -11.141      0.2234      0.1420
      1187.50      289.928      4.537E-03      -11.225      0.2616      0.1265
      1212.50      289.924      4.517E-03      -11.304      0.2913      0.1116
      1237.50      289.921      4.494E-03      -11.379      0.3129      0.0974
      1262.50      289.920      4.468E-03      -11.449      0.3268      0.0838
      1287.50      289.920      4.439E-03      -11.516      0.3335      0.0709
      1312.50      289.923      4.407E-03      -11.579      0.3333      0.0588
      1337.50      289.928      4.371E-03      -11.638      0.3266      0.0474
      1362.50      289.935      4.331E-03      -11.692      0.3139      0.0369
      1387.50      289.946      4.288E-03      -11.743      0.2956      0.0273
      1412.50      289.959      4.241E-03      -11.789      0.2720      0.0187
      1437.50      289.976      4.191E-03      -11.832      0.2436      0.0113
      1462.50      289.996      4.137E-03      -11.870      0.2108      0.0053
      1487.50      290.021      4.080E-03      -11.905      0.1740      0.0010
      1512.50      290.049      4.019E-03      -11.935      0.1336      0.0000
      1537.50      290.082      3.955E-03      -11.961      0.0901      0.0000
      1562.50      290.120      3.887E-03      -11.983      0.0437      0.0000
      1587.50      290.163      3.816E-03      -12.001      -0.0050      0.0000
      1612.50      290.211      3.741E-03      -12.015      -0.0557      0.0000
      1637.50      290.264      3.664E-03      -12.025      -0.1084      0.0000
      1662.50      290.322      3.584E-03      -12.032      -0.1629      0.0000
      1687.50      290.385      3.502E-03      -12.034      -0.2192      0.0000
      1712.50      290.454      3.418E-03      -12.033      -0.2773      0.0000
      1737.50      290.526      3.332E-03      -12.029      -0.3372      0.0000
      1762.50      290.604      3.245E-03      -12.021      -0.3986      0.0000
      1787.50      290.686      3.157E-03      -12.010      -0.4617      0.0000
      1812.50      290.773      3.069E-03      -11.996      -0.5262      0.0000
      1837.50      290.864      2.980E-03      -11.979      -0.5923      0.0000
      1862.50      290.959      2.890E-03      -11.959      -0.6597      0.0000
      1887.50      291.059      2.801E-03      -11.937      -0.7286      0.0000
      1912.50      291.163      2.712E-03      -11.911      -0.7987      0.0000
      1937.50      291.271      2.624E-03      -11.884      -0.8700      0.0000
      1962.50      291.382      2.536E-03      -11.853      -0.9426      0.0000
      1987.50      291.498      2.449E-03      -11.821      -1.0163      0.0000
      2012.50      291.617      2.364E-03      -11.787      -1.0910      0.0000
      2037.50      291.740      2.279E-03      -11.750      -1.1668      0.0000
      2062.50      291.867      2.196E-03      -11.712      -1.2435      0.0000
      2087.50      291.997      2.115E-03      -11.672      -1.3212      0.0000
      2112.50      292.131      2.035E-03      -11.630      -1.3996      0.0000
      2137.50      292.267      1.957E-03      -11.587      -1.4789      0.0000
      2162.50      292.407      1.881E-03      -11.542      -1.5589      0.0000
      2187.50      292.550      1.806E-03      -11.496      -1.6396      0.0000
      2212.50      292.696      1.734E-03      -11.449      -1.7208      0.0000
      2237.50      292.845      1.664E-03      -11.400      -1.8027      0.0000
      2262.50      292.996      1.595E-03      -11.351      -1.8850      0.0000
      2287.50      293.151      1.529E-03      -11.301      -1.9678      0.0000
      2312.50      293.307      1.465E-03      -11.250      -2.0509      0.0000
      2337.50      293.467      1.403E-03      -11.199      -2.1344      0.0000
      2362.50      293.628      1.343E-03      -11.147      -2.2182      0.0000
      2387.50      293.792      1.286E-03      -11.095      -2.3022      0.0000
      2412.50      293.959      1.230E-03      -11.043      -2.3863      0.0000
      2437.50      294.127      1.177E-03      -10.990      -2.4705      0.0000
      2462.50      294.297      1.125E-03      -10.938      -2.5548      0.0000
      2487.50      294.469      1.076E-03      -10.886      -2.6391      0.0000
      2512.50      294.643      1.029E-03      -10.834      -2.7233      0.0000
      2537.50      294.818      9.833E-04      -10.782      -2.8073      0.0000
      2562.50      294.995      9.399E-04      -10.731      -2.8912      0.0000
      2587.50      295.174      8.984E-04      -10.681      -2.9749      0.0000
      2612.50      295.353      8.588E-04      -10.631      -3.0582      0.0000
      2637.50      295.534      8.209E-04      -10.582      -3.1412      0.0000
      2662.50      295.717      7.848E-04      -10.534      -3.2237      0.0000
      2687.50      295.900      7.504E-04      -10.487      -3.3058      0.0000
      2712.50      296.084      7.176E-04      -10.442      -3.3874      0.0000
      2737.50      296.269      6.865E-04      -10.398      -3.4684      0.0000
      2762.50      296.455      6.568E-04      -10.355      -3.5487      0.0000
      2787.50      296.641      6.287E-04      -10.314      -3.6283      0.0000
      2812.50      296.827      6.020E-04      -10.274      -3.7072      0.0000
      2837.50      297.015      5.767E-04      -10.236      -3.7852      0.0000
      2862.50      297.202      5.526E-04      -10.201      -3.8624      0.0000
      2887.50      297.389      5.299E-04      -10.167      -3.9387      0.0000
      2912.50      297.577      5.084E-04      -10.135      -4.0139      0.0000
      2937.50      297.765      4.881E-04      -10.106      -4.0882      0.0000
      2962.50      297.952      4.689E-04      -10.079      -4.1613      0.0000
      2987.50      298.139      4.507E-04      -10.055      -4.2332      0.0000
      3012.50      298.326      4.336E-04      -10.034      -4.3040      0.0000
      3037.50      298.512      4.175E-04      -10.015      -4.3735      0.0000
      3062.50      298.698      4.024E-04      -9.9994      -4.4416      0.0000
      3087.50      298.882      3.882E-04      -9.9865      -4.5084      0.0000
      3112.50      299.066      3.748E-04      -9.9767      -4.5737      0.0000
      3137.50      299.249      3.623E-04      -9.9702      -4.6375      0.0000
      3162.50      299.431      3.505E-04      -9.9671      -4.6997      0.0000
      3187.50      299.612      3.396E-04      -9.9673      -4.7604      0.0000
      3212.50      299.792      3.293E-04      -9.9708      -4.8196      0.0000
      3237.50      299.971      3.197E-04      -9.9777      -4.8771      0.0000
      3262.50      300.149      3.107E-04      -9.9878      -4.9332      0.0000
      3287.50      300.325      3.023E-04      -10.001      -4.9876      0.0000
      3312.50      300.501      2.944E-04      -10.017      -5.0406      0.0000
      3337.50      300.675      2.870E-04      -10.037      -5.0920      0.0000
      3362.50      300.848      2.801E-04      -10.059      -5.1419      0.0000
      3387.50      301.020      2.737E-04      -10.085      -5.1902      0.0000
      3412.50      301.191      2.676E-04      -10.114      -5.2371      0.0000
      3437.50      301.361      2.620E-04      -10.146      -5.2824      0.0000
      3462.50      301.530      2.568E-04      -10.180      -5.3262      0.0000
      3487.50      301.698      2.519E-04      -10.218      -5.3685      0.0000
      3512.50      301.864      2.473E-04      -10.258      -5.4094      0.0000
      3537.50      302.030      2.431E-04      -10.302      -5.4487      0.0000
      3562.50      302.194      2.391E-04      -10.348      -5.4865      0.0000
      3587.50      302.358      2.355E-04      -10.396      -5.5229      0.0000
      3612.50      302.520      2.321E-04      -10.448      -5.5578      0.0000
      3637.50      302.681      2.289E-04      -10.502      -5.5912      0.0000
      3662.50      302.841      2.261E-04      -10.559      -5.6231      0.0000
      3687.50      303.000      2.234E-04      -10.618      -5.6536      0.0000
      3712.50      303.157      2.210E-04      -10.680      -5.6826      0.0000
      3737.50      303.314      2.188E-04      -10.745      -5.7102      0.0000
      3762.50      303.469      2.168E-04      -10.812      -5.7364      0.0000
      3787.50      303.624      2.150E-04      -10.881      -5.7611      0.0000
      3812.50      303.777      2.133E-04      -10.953      -5.7843      0.0000
      3837.50      303.929      2.119E-04      -11.027      -5.8062      0.0000
      3862.50      304.080      2.106E-04      -11.103      -5.8266      0.0000
      3887.50      304.230      2.095E-04      -11.182      -5.8456      0.0000
      3912.50      304.378      2.086E-04      -11.263      -5.8631      0.0000
      3937.50      304.526      2.078E-04      -11.346      -5.8793      0.0000
      3962.50      304.672      2.072E-04      -11.432      -5.8941      0.0000
      3987.50      304.818      2.067E-04      -11.519      -5.9075      0.0000
      4012.50      304.962      2.063E-04      -11.609      -5.9194      0.0000
      4037.50      305.105      2.061E-04      -11.700      -5.9300      0.0000
      4062.50      305.247      2.061E-04      -11.794      -5.9392      0.0000
      4087.50      305.388      2.061E-04      -11.889      -5.9471      0.0000
      4112.50      305.527      2.063E-04      -11.987      -5.9535      0.0000
      4137.50      305.666      2.066E-04      -12.086      -5.9586      0.0000
      4162.50      305.803      2.070E-04      -12.188      -5.9624      0.0000
      4187.50      305.939      2.075E-04      -12.291      -5.9647      0.0000
      4212.50      306.074      2.082E-04      -12.395      -5.9658      0.0000
      4237.50      306.208      2.090E-04      -12.502      -5.9655      0.0000
      4262.50      306.341      2.098E-04      -12.610      -5.9638      0.0000
      4287.50      306.473      2.108E-04      -12.720      -5.9608      0.0000
      4312.50      306.603      2.119E-04      -12.832      -5.9565      0.0000
      4337.50      306.732      2.131E-04      -12.945      -5.9508      0.0000
      4362.50      306.861      2.143E-04      -13.060      -5.9439      0.0000
      4387.50      306.988      2.157E-04      -13.176      -5.9356      0.0000
      4412.50      307.114      2.172E-04      -13.293      -5.9260      0.0000
      4437.50      307.238      2.187E-04      -13.413      -5.9151      0.0000
      4462.50      307.362      2.204E-04      -13.533      -5.9029      0.0000
      4487.50      307.484      2.221E-04      -13.655      -5.8895      0.0000
      4512.50      307.606      2.239E-04      -13.778      -5.8747      0.0000
      4537.50      307.726      2.258E-04      -13.902      -5.8586      0.0000
      4562.50      307.845      2.278E-04      -14.028      -5.8413      0.0000
      4587.50      307.962      2.298E-04      -14.155      -5.8227      0.0000
      4612.50      308.079      2.320E-04      -14.283      -5.8028      0.0000
      4637.50      308.195      2.342E-04      -14.412      -5.7817      0.0000
      4662.50      308.309      2.365E-04      -14.542      -5.7593      0.0000
      4687.50      308.422      2.388E-04      -14.673      -5.7357      0.0000
      4712.50      308.534      2.412E-04      -14.806      -5.7108      0.0000
      4737.50      308.645      2.437E-04      -14.939      -5.6847      0.0000
      4762.50      308.755      2.462E-04      -15.073      -5.6573      0.0000
      4787.50      308.863      2.488E-04      -15.208      -5.6287      0.0000
      4812.50      308.971      2.514E-04      -15.344      -5.5989      0.0000
      4837.50      309.077      2.541E-04      -15.480      -5.5679      0.0000
      4862.50      309.182      2.568E-04      -15.618      -5.5357      0.0000
      4887.50      309.286      2.595E-04      -15.756      -5.5022      0.0000
      4912.50      309.389      2.623E-04      -15.895      -5.4675      0.0000
      4937.50      309.490      2.652E-04      -16.034      -5.4317      0.0000
      4962.50      309.591      2.680E-04      -16.174      -5.3946      0.0000
      4987.50      309.690      2.709E-04      -16.315      -5.3564      0.0000
