date06/01/09 12
height(m)   thl(K)     qt(kg/kg)       u(m/s)     v(m/s)     tke(m2/s2)
      12.5000      268.452      1.663E-03      1.7846      0.9745      0.2852
      37.5000      268.830      1.675E-03      -2.7022      0.0130      0.2744
      62.5000      268.767      1.676E-03      2.1811      1.7525      0.2638
      87.5000      268.368      1.712E-03      -2.4687      0.9628      0.2533
      112.500      268.281      1.683E-03      -0.9079      -2.7471      0.2430
      137.500      268.426      1.611E-03      1.3889      3.1049      0.2328
      162.500      268.656      1.526E-03      -3.3434      -2.1478      0.2228
      187.500      268.821      1.463E-03      -3.1923      -3.0422      0.2129
      212.500      268.701      1.359E-03      6.0051      0.0013      0.2031
      237.500      268.780      1.307E-03      6.2502      0.0701      0.1935
      262.500      268.868      1.258E-03      6.4738      0.1444      0.1841
      287.500      268.964      1.212E-03      6.6767      0.2235      0.1748
      312.500      269.066      1.168E-03      6.8599      0.3066      0.1657
      337.500      269.176      1.126E-03      7.0241      0.3931      0.1567
      362.500      269.291      1.087E-03      7.1702      0.4823      0.1479
      387.500      269.411      1.049E-03      7.2990      0.5737      0.1393
      412.500      269.536      1.014E-03      7.4114      0.6667      0.1309
      437.500      269.665      9.806E-04      7.5084      0.7607      0.1226
      462.500      269.797      9.488E-04      7.5907      0.8552      0.1145
      487.500      269.932      9.187E-04      7.6594      0.9497      0.1066
      512.500      270.069      8.902E-04      7.7153      1.0438      0.0989
      537.500      270.207      8.631E-04      7.7593      1.1371      0.0914
      562.500      270.346      8.374E-04      7.7926      1.2293      0.0841
      587.500      270.486      8.131E-04      7.8159      1.3200      0.0770
      612.500      270.624      7.900E-04      7.8302      1.4090      0.0701
      637.500      270.762      7.681E-04      7.8365      1.4961      0.0634
      662.500      270.898      7.473E-04      7.8358      1.5810      0.0570
      687.500      271.031      7.277E-04      7.8290      1.6637      0.0508
      712.500      271.161      7.090E-04      7.8170      1.7440      0.0448
      737.500      271.287      6.912E-04      7.8009      1.8220      0.0391
      762.500      271.409      6.744E-04      7.7816      1.8975      0.0336
      787.500      271.526      6.585E-04      7.7600      1.9706      0.0285
      812.500      271.637      6.434E-04      7.7372      2.0415      0.0236
      837.500      271.741      6.291E-04      7.7139      2.1101      0.0190
      862.500      271.839      6.155E-04      7.6907      2.1766      0.0148
      887.500      271.931      6.026E-04      7.6676      2.2411      0.0110
      912.500      272.018      5.904E-04      7.6447      2.3037      0.0075
      937.500      272.099      5.788E-04      7.6221      2.3644      0.0045
      962.500      272.177      5.679E-04      7.5997      2.4233      0.0021
      987.500      272.250      5.574E-04      7.5776      2.4806      0.0004
      1012.50      272.321      5.475E-04      7.5559      2.5362      0.0000
      1037.50      272.388      5.381E-04      7.5345      2.5903      0.0000
      1062.50      272.453      5.291E-04      7.5137      2.6430      0.0000
      1087.50      272.517      5.206E-04      7.4932      2.6943      0.0000
      1112.50      272.580      5.125E-04      7.4733      2.7444      0.0000
      1137.50      272.642      5.048E-04      7.4539      2.7933      0.0000
      1162.50      272.704      4.975E-04      7.4350      2.8410      0.0000
      1187.50      272.766      4.905E-04      7.4167      2.8877      0.0000
      1212.50      272.830      4.838E-04      7.3990      2.9335      0.0000
      1237.50      272.895      4.775E-04      7.3819      2.9785      0.0000
      1262.50      272.962      4.714E-04      7.3654      3.0226      0.0000
      1287.50      273.033      4.656E-04      7.3495      3.0661      0.0000
      1312.50      273.106      4.601E-04      7.3343      3.1089      0.0000
      1337.50      273.183      4.548E-04      7.3197      3.1512      0.0000
      1362.50      273.265      4.498E-04      7.3058      3.1930      0.0000
      1387.50      273.352      4.449E-04      7.2925      3.2344      0.0000
      1412.50      273.444      4.403E-04      7.2799      3.2756      0.0000
      1437.50      273.543      4.358E-04      7.2680      3.3165      0.0000
      1462.50      273.648      4.315E-04      7.2567      3.3573      0.0000
      1487.50      273.761      4.274E-04      7.2461      3.3980      0.0000
      1512.50      273.881      4.234E-04      7.2362      3.4388      0.0000
      1537.50      274.008      4.196E-04      7.2269      3.4795      0.0000
      1562.50      274.143      4.159E-04      7.2184      3.5202      0.0000
      1587.50      274.284      4.124E-04      7.2105      3.5608      0.0000
      1612.50      274.433      4.089E-04      7.2034      3.6015      0.0000
      1637.50      274.588      4.056E-04      7.1969      3.6422      0.0000
      1662.50      274.750      4.025E-04      7.1912      3.6829      0.0000
      1687.50      274.918      3.994E-04      7.1863      3.7236      0.0000
      1712.50      275.092      3.964E-04      7.1820      3.7642      0.0000
      1737.50      275.272      3.936E-04      7.1785      3.8049      0.0000
      1762.50      275.457      3.908E-04      7.1758      3.8456      0.0000
      1787.50      275.649      3.881E-04      7.1739      3.8863      0.0000
      1812.50      275.845      3.855E-04      7.1727      3.9270      0.0000
      1837.50      276.047      3.830E-04      7.1723      3.9677      0.0000
      1862.50      276.254      3.806E-04      7.1727      4.0085      0.0000
      1887.50      276.465      3.783E-04      7.1740      4.0492      0.0000
      1912.50      276.682      3.760E-04      7.1760      4.0899      0.0000
      1937.50      276.902      3.738E-04      7.1789      4.1307      0.0000
      1962.50      277.127      3.717E-04      7.1827      4.1714      0.0000
      1987.50      277.356      3.696E-04      7.1873      4.2122      0.0000
      2012.50      277.589      3.676E-04      7.1928      4.2529      0.0000
      2037.50      277.826      3.656E-04      7.1991      4.2937      0.0000
      2062.50      278.066      3.637E-04      7.2064      4.3344      0.0000
      2087.50      278.309      3.618E-04      7.2146      4.3752      0.0000
      2112.50      278.556      3.600E-04      7.2236      4.4159      0.0000
      2137.50      278.805      3.582E-04      7.2337      4.4566      0.0000
      2162.50      279.057      3.564E-04      7.2446      4.4974      0.0000
      2187.50      279.312      3.547E-04      7.2566      4.5380      0.0000
      2212.50      279.569      3.531E-04      7.2695      4.5787      0.0000
      2237.50      279.828      3.514E-04      7.2834      4.6194      0.0000
      2262.50      280.089      3.498E-04      7.2983      4.6600      0.0000
      2287.50      280.351      3.482E-04      7.3143      4.7005      0.0000
      2312.50      280.615      3.466E-04      7.3312      4.7410      0.0000
      2337.50      280.881      3.450E-04      7.3493      4.7815      0.0000
      2362.50      281.148      3.434E-04      7.3684      4.8219      0.0000
      2387.50      281.415      3.419E-04      7.3885      4.8622      0.0000
      2412.50      281.683      3.404E-04      7.4098      4.9025      0.0000
      2437.50      281.952      3.388E-04      7.4323      4.9426      0.0000
      2462.50      282.221      3.373E-04      7.4558      4.9826      0.0000
      2487.50      282.490      3.358E-04      7.4805      5.0226      0.0000
      2512.50      282.760      3.342E-04      7.5064      5.0624      0.0000
      2537.50      283.028      3.327E-04      7.5335      5.1021      0.0000
      2562.50      283.297      3.311E-04      7.5618      5.1416      0.0000
      2587.50      283.564      3.296E-04      7.5913      5.1809      0.0000
      2612.50      283.831      3.280E-04      7.6221      5.2201      0.0000
      2637.50      284.096      3.264E-04      7.6542      5.2591      0.0000
      2662.50      284.360      3.248E-04      7.6875      5.2978      0.0000
      2687.50      284.623      3.232E-04      7.7222      5.3364      0.0000
      2712.50      284.884      3.216E-04      7.7582      5.3746      0.0000
      2737.50      285.143      3.199E-04      7.7955      5.4127      0.0000
      2762.50      285.399      3.182E-04      7.8343      5.4504      0.0000
      2787.50      285.653      3.165E-04      7.8744      5.4878      0.0000
      2812.50      285.905      3.147E-04      7.9160      5.5249      0.0000
      2837.50      286.154      3.130E-04      7.9590      5.5617      0.0000
      2862.50      286.399      3.111E-04      8.0035      5.5980      0.0000
      2887.50      286.642      3.093E-04      8.0495      5.6340      0.0000
      2912.50      286.881      3.074E-04      8.0970      5.6695      0.0000
      2937.50      287.116      3.055E-04      8.1460      5.7046      0.0000
      2962.50      287.347      3.035E-04      8.1967      5.7392      0.0000
      2987.50      287.574      3.015E-04      8.2488      5.7733      0.0000
      3012.50      287.797      2.994E-04      8.3026      5.8069      0.0000
      3037.50      288.017      2.974E-04      8.3578      5.8399      0.0000
      3062.50      288.232      2.952E-04      8.4144      5.8724      0.0000
      3087.50      288.443      2.931E-04      8.4725      5.9044      0.0000
      3112.50      288.650      2.909E-04      8.5318      5.9358      0.0000
      3137.50      288.853      2.887E-04      8.5925      5.9666      0.0000
      3162.50      289.053      2.864E-04      8.6544      5.9969      0.0000
      3187.50      289.248      2.841E-04      8.7174      6.0267      0.0000
      3212.50      289.440      2.818E-04      8.7816      6.0558      0.0000
      3237.50      289.628      2.795E-04      8.8469      6.0844      0.0000
      3262.50      289.813      2.772E-04      8.9132      6.1124      0.0000
      3287.50      289.994      2.748E-04      8.9804      6.1398      0.0000
      3312.50      290.171      2.724E-04      9.0485      6.1667      0.0000
      3337.50      290.345      2.700E-04      9.1175      6.1930      0.0000
      3362.50      290.515      2.676E-04      9.1873      6.2187      0.0000
      3387.50      290.682      2.651E-04      9.2578      6.2438      0.0000
      3412.50      290.845      2.627E-04      9.3289      6.2683      0.0000
      3437.50      291.006      2.602E-04      9.4007      6.2923      0.0000
      3462.50      291.162      2.578E-04      9.4730      6.3158      0.0000
      3487.50      291.316      2.553E-04      9.5458      6.3386      0.0000
      3512.50      291.466      2.528E-04      9.6190      6.3610      0.0000
      3537.50      291.613      2.503E-04      9.6925      6.3828      0.0000
      3562.50      291.757      2.478E-04      9.7664      6.4041      0.0000
      3587.50      291.898      2.453E-04      9.8404      6.4249      0.0000
      3612.50      292.036      2.428E-04      9.9147      6.4453      0.0000
      3637.50      292.171      2.403E-04      9.9890      6.4652      0.0000
      3662.50      292.303      2.378E-04      10.0634      6.4846      0.0000
      3687.50      292.432      2.354E-04      10.1377      6.5036      0.0000
      3712.50      292.558      2.329E-04      10.2119      6.5222      0.0000
      3737.50      292.681      2.304E-04      10.2860      6.5405      0.0000
      3762.50      292.802      2.279E-04      10.3598      6.5584      0.0000
      3787.50      292.920      2.254E-04      10.4333      6.5760      0.0000
      3812.50      293.035      2.230E-04      10.5064      6.5933      0.0000
      3837.50      293.148      2.205E-04      10.5790      6.6103      0.0000
      3862.50      293.258      2.181E-04      10.6512      6.6271      0.0000
      3887.50      293.365      2.157E-04      10.7227      6.6437      0.0000
      3912.50      293.470      2.132E-04      10.7936      6.6602      0.0000
      3937.50      293.573      2.108E-04      10.8637      6.6766      0.0000
      3962.50      293.673      2.084E-04      10.9330      6.6929      0.0000
      3987.50      293.771      2.061E-04      11.0015      6.7091      0.0000
      4012.50      293.866      2.037E-04      11.0690      6.7253      0.0000
      4037.50      293.960      2.014E-04      11.1355      6.7416      0.0000
      4062.50      294.051      1.990E-04      11.2008      6.7580      0.0000
      4087.50      294.140      1.967E-04      11.2650      6.7746      0.0000
      4112.50      294.227      1.944E-04      11.3280      6.7913      0.0000
      4137.50      294.312      1.922E-04      11.3896      6.8082      0.0000
      4162.50      294.395      1.899E-04      11.4498      6.8254      0.0000
      4187.50      294.476      1.877E-04      11.5086      6.8430      0.0000
      4212.50      294.555      1.855E-04      11.5658      6.8609      0.0000
      4237.50      294.633      1.833E-04      11.6214      6.8792      0.0000
      4262.50      294.708      1.811E-04      11.6753      6.8980      0.0000
      4287.50      294.782      1.790E-04      11.7274      6.9174      0.0000
      4312.50      294.854      1.768E-04      11.7776      6.9373      0.0000
      4337.50      294.925      1.747E-04      11.8260      6.9578      0.0000
      4362.50      294.994      1.727E-04      11.8723      6.9790      0.0000
      4387.50      295.061      1.706E-04      11.9165      7.0010      0.0000
      4412.50      295.127      1.686E-04      11.9586      7.0237      0.0000
      4437.50      295.192      1.666E-04      11.9984      7.0473      0.0000
      4462.50      295.255      1.646E-04      12.0359      7.0717      0.0000
      4487.50      295.317      1.626E-04      12.0711      7.0971      0.0000
      4512.50      295.378      1.607E-04      12.1037      7.1234      0.0000
      4537.50      295.437      1.588E-04      12.1338      7.1507      0.0000
      4562.50      295.496      1.569E-04      12.1612      7.1791      0.0000
      4587.50      295.553      1.551E-04      12.1859      7.2086      0.0000
      4612.50      295.609      1.532E-04      12.2078      7.2393      0.0000
      4637.50      295.665      1.514E-04      12.2268      7.2711      0.0000
      4662.50      295.719      1.497E-04      12.2428      7.3042      0.0000
      4687.50      295.773      1.479E-04      12.2558      7.3385      0.0000
      4712.50      295.825      1.462E-04      12.2657      7.3741      0.0000
      4737.50      295.877      1.445E-04      12.2723      7.4110      0.0000
      4762.50      295.928      1.428E-04      12.2756      7.4493      0.0000
      4787.50      295.979      1.412E-04      12.2755      7.4889      0.0000
      4812.50      296.029      1.396E-04      12.2719      7.5300      0.0000
      4837.50      296.078      1.380E-04      12.2647      7.5724      0.0000
      4862.50      296.128      1.364E-04      12.2539      7.6163      0.0000
      4887.50      296.176      1.349E-04      12.2393      7.6615      0.0000
      4912.50      296.224      1.334E-04      12.2209      7.7083      0.0000
      4937.50      296.272      1.319E-04      12.1986      7.7564      0.0000
      4962.50      296.320      1.305E-04      12.1722      7.8060      0.0000
      4987.50      296.368      1.290E-04      12.1417      7.8570      0.0000
